Probe Wavelength (nm),1,2,3
699.99,0.0,0.0,0.0
711.11,0.0,0.0,0.0
722.24,0.0,0.0,0.0
733.33,0.0,0.0,0.0
744.46,0.0,0.0,0.0
755.55,0.0,0.0,0.0
766.67,0.0,0.0,0.0
777.77,0.0,0.0,0.0
788.89,0.0,0.0,0.0
799.99,0.0,0.0,0.0
