Meas. Point Index,X (Vrms),Y (Vrms),R (Vrms),Theta (deg),Aux In 1,Aux In 2,Frequency,Phase
1.0,4.911700882903052e-05,-2.53175337948002e-05,5.525810414556323e-05,-0.4759338357426183,-0.00152587890625,0.001220703125,9999999.999995168,3.673021122792925
2.0,-3.2166183647675685e-06,-5.4190140048766164e-05,5.428552212339355e-05,-1.6300847609431093,0.0018310546875,0.001220703125,9999999.999995168,5.48810389005861
3.0,4.031629896608614e-05,-2.1717151512000123e-06,4.037474840814231e-05,-0.053814917047163756,-0.0018310546875,0.0,9999999.999995168,1.718250230030404
4.0,-1.0029565490817818e-05,-8.314345160745077e-06,1.3027682809563975e-05,-2.4494269393513286,-0.00030517578125,0.0006103515625,9999999.999995168,2.9748681167064723
5.0,8.284700046572982e-06,2.6855000164281972e-05,2.810386608075962e-05,1.2715620201883968,-0.00152587890625,0.0,9999999.999995168,5.48810389005861
